#HEIGHT=   844
#WIDTH =  1117
#TIME  =  0.000000
#          #
#   1 X_IMAGE         Object position along x                         [pixel]
#   2 Y_IMAGE         Object position along y                         [pixel]
#   3 MAG_APER        Fixed aperture magnitude vector                 [mag]
#   4 FWHM_IMAGE      FWHM assuming a gaussian core                   [pixel]
#   5 FLAGS           Extraction flags
#   6 CLASS_STAR      S/G classifier output
#   7 ELONGATION      A_IMAGE/B_IMAGE
#   8 ELLIPTICITY     1 - B_IMAGE/A_IMAGE
#   9 A_IMAGE         Profile RMS along major axis                    [pixel]
#  10 B_IMAGE         Profile RMS along minor axis                    [pixel]
#  11 THETA_IMAGE     Position angle (CCW/x)                          [deg]
  1112.394      8.830  -1.2347     3.86 000  0.03    1.031    0.031     1.37     1.33  -5.1
    59.445      1.746  -0.2879     3.90 024  0.03    1.410    0.291     0.98     0.70   2.7
   115.188    805.563  -1.5436     3.80 000  0.03    1.258    0.205     1.60     1.27 -13.1
   912.703    791.154  -2.3374     3.41 000  0.03    1.102    0.093     1.58     1.44 -12.8
    36.238    786.516  -0.7207     3.72 000  0.02    1.218    0.179     1.20     0.98  -6.0
   121.222    752.394  -3.5628     3.62 000  0.08    1.188    0.158     1.81     1.52  -3.1
   331.371    746.335  -1.2426     3.46 000  0.03    1.116    0.104     1.37     1.23 -19.2
    45.549    712.563  -1.6935     3.60 000  0.03    1.216    0.177     1.55     1.28   1.1
   455.372    646.042  -1.9805     3.47 000  0.09    1.138    0.122     1.57     1.38   5.2
   634.118    644.531  -1.9167     3.16 000  0.10    1.094    0.086     1.43     1.30  -2.5
   164.484    625.185  -1.3877     3.33 000  0.03    1.194    0.163     1.39     1.16  -1.6
   399.939    603.702  -1.3998     3.37 000  0.15    1.163    0.140     1.44     1.24 -16.6
   773.264    598.524  -0.6725     3.27 000  0.02    1.178    0.151     1.17     0.99   0.5
   371.249    575.776  -1.3960     3.33 000  0.03    1.138    0.121     1.39     1.22   2.4
   205.727    568.568  -0.5860     3.17 000  0.02    1.195    0.163     1.18     0.98   2.2
   919.371    561.947  -0.1295     2.94 000  0.02    1.359    0.264     1.01     0.74 -14.6
   922.572    547.352  -2.2808     3.41 000  0.03    1.102    0.093     1.56     1.41   5.0
  1098.707    544.127  -1.5320     3.58 000  0.03    1.076    0.071     1.40     1.30 -17.4
   189.867    534.792  -1.4121     3.56 000  0.06    1.226    0.184     1.44     1.17 -11.2
    18.838    534.141  -0.8994     3.57 000  0.04    1.199    0.166     1.26     1.05   5.2
   712.355    529.626  -0.3162     3.30 000  0.02    1.137    0.121     1.00     0.88 -37.7
   603.704    465.922  -0.5329     3.12 000  0.02    1.093    0.085     1.07     0.98  22.9
   202.559    446.044  -0.4268     3.35 000  0.02    1.335    0.251     1.04     0.78  -2.3
   886.925    434.967  -4.3086     3.23 000  0.13    1.059    0.056     1.74     1.65  -0.7
   260.865    427.275  -1.8081     3.23 000  0.03    1.192    0.161     1.48     1.24  -7.0
   949.208    391.847  -2.2638     3.27 000  0.03    1.075    0.070     1.53     1.42   5.1
   838.295    372.941  -0.2595     3.00 000  0.01    1.338    0.253     1.00     0.75 -13.9
  1041.005    347.997   0.1202   -76.87 002  1.00    1.017    0.017     0.71     0.70 -40.7
  1043.992    346.000   0.3916     0.00 002  1.00    1.012    0.012     0.58     0.57 -90.0
  1040.562    340.338  -2.6131     3.47 000  0.03    1.066    0.062     1.60     1.50 -26.3
   725.539    312.238  -0.1701     3.22 000  0.01    1.350    0.259     0.97     0.72   0.0
  1055.199    292.849  -1.3616     3.56 000  0.03    1.131    0.116     1.45     1.28 -18.9
   653.463    281.405  -1.6875     3.25 000  0.03    1.037    0.036     1.35     1.30 -10.1
   952.264    234.820  -5.0304     3.83 004  0.84    1.023    0.023     2.00     1.95  12.4
  1042.774    217.665  -1.5076     3.55 000  0.04    1.103    0.093     1.43     1.30 -11.0
   850.613    208.917  -1.6286     3.38 000  0.03    1.064    0.060     1.40     1.31 -44.5
   816.164    182.454  -2.3596     3.37 000  0.03    1.082    0.075     1.55     1.43 -13.0
   177.674    174.400  -1.6611     3.39 000  0.03    1.155    0.135     1.45     1.25  10.7
   209.616    166.944  -0.9893     3.26 000  0.03    1.183    0.155     1.30     1.10  18.3
   575.030    133.607  -3.5290     3.20 000  0.05    1.062    0.059     1.67     1.57  15.9
   101.029    115.020  -0.4709     3.88 000  0.02    1.613    0.380     1.26     0.78   0.2
   708.071     93.867  -2.8186     3.33 000  0.75    1.065    0.061     1.64     1.54   8.2
    33.744     95.500  -0.5175     3.49 000  0.02    1.189    0.159     1.19     1.00  -2.5
   542.373     87.981  -0.6620     3.53 000  0.02    1.030    0.030     1.08     1.05 -79.9
   564.460     61.500  -0.5470     3.06 000  0.13    1.017    0.016     1.03     1.01 -14.9
   208.567     58.516  -0.1618     4.28 000  0.01    1.051    0.048     0.94     0.90   6.5
   948.852     22.902  -1.9446     3.47 000  0.04    1.064    0.060     1.52     1.42 -26.0
   974.520     20.012  -0.4321     3.41 000  0.02    1.130    0.115     1.10     0.97 -87.0
   408.898    827.633  -0.6248     3.75 000  0.02    1.259    0.206     1.19     0.95 -16.1
